SpectraSmart Spectrum 2.6.17.30709
--------- Device Information -----------
Spectrum Name :  Spectrum_0
Saving Time :  2021/11/14 20:59:29
Spectro-Module Model Name : SE1030-VNIR
Spectro-Module Serial Number : OS361AC55010184
Wavelength Start : 350
Wavelength End : 1020
Wavelength Unit : Wavelength(nm)
Spectrum Unit : Intensity(Counts)
-----------Spectrum Setting ------------
Integration Time : 50ms
Average : 1
Boxcar : 0
Background removal :  enabled
linearity correction :  enabled
SC :  disabled
Intensity correction :  disabled
DWT denoise :  enabled
savitzky-golay :  disabled
FFT :  disabled
Running average :  disabled
Kalman :  disabled
High pass :  disabled
---------------BEGIN--------------------
Wavelength(nm)          Intensity(Counts)
350.00        64.54313
351.00        72.84972
352.00        73.30297
353.00        76.22803
354.00        70.80494
355.00         64.7123
356.00        70.29634
357.00        76.43826
358.00        84.34827
359.00        101.5316
360.00        90.68206
361.00        75.98011
362.00        100.2114
363.00        99.36441
364.00        81.59092
365.00        84.39748
366.00        86.53699
367.00        85.73777
368.00        84.88623
369.00        89.25358
370.00        92.62621
371.00        86.17932
372.00        83.47436
373.00        88.83228
374.00        100.5639
375.00        95.42869
376.00        83.36571
377.00        88.81423
378.00        88.32281
379.00        89.03989
380.00        109.0921
381.00          97.217
382.00        80.48775
383.00         108.598
384.00        94.58235
385.00        67.02233
386.00        89.08865
387.00        92.13027
388.00        84.64617
389.00        98.97387
390.00         91.3883
391.00        82.88849
392.00        106.3663
393.00        93.71355
394.00        77.48396
395.00        108.0058
396.00        101.5228
397.00        84.70237
398.00        104.9058
399.00        98.09206
400.00        85.95971
401.00        102.2398
402.00        94.16946
403.00        89.25601
404.00        115.5265
405.00        102.2275
406.00        82.55099
407.00        98.77239
408.00         109.069
409.00        116.0507
410.00        124.4835
411.00        105.7526
412.00        96.58546
413.00        119.1141
414.00        110.0725
415.00        96.48241
416.00         104.711
417.00        109.2214
418.00        113.0244
419.00        116.3147
420.00        109.5418
421.00        106.8214
422.00        114.0911
423.00        114.1802
424.00        111.3161
425.00        108.2048
426.00        98.48402
427.00        100.9891
428.00        115.2022
429.00        110.8192
430.00        110.4959
431.00        117.5783
432.00        110.6458
433.00         106.111
434.00        106.4343
435.00        100.3162
436.00        109.3027
437.00         124.231
438.00        116.7723
439.00        117.4892
440.00        123.0898
441.00        112.9189
442.00        116.7241
443.00        123.6981
444.00        111.1895
445.00        113.7597
446.00        118.9106
447.00        106.3101
448.00        120.3814
449.00        137.7361
450.00        128.9764
451.00        127.3913
452.00        132.1133
453.00        135.1075
454.00         142.881
455.00         136.971
456.00        115.5256
457.00        128.4747
458.00        140.0613
459.00        130.6924
460.00        142.1741
461.00        150.0019
462.00        147.2445
463.00        159.7679
464.00        160.1146
465.00        151.0882
466.00        167.3761
467.00        167.0695
468.00        153.1426
469.00        157.1787
470.00        160.5612
471.00         156.913
472.00        147.5096
473.00        159.4585
474.00          179.34
475.00        182.4422
476.00        172.2669
477.00        165.1475
478.00         173.053
479.00        170.8907
480.00        168.6708
481.00        177.7034
482.00        193.0761
483.00        202.5881
484.00        202.3009
485.00        208.2594
486.00        216.0581
487.00         221.106
488.00        218.1474
489.00        225.2066
490.00          238.02
491.00        236.4616
492.00         229.831
493.00        230.1968
494.00        246.3407
495.00        247.9373
496.00        244.9487
497.00        258.5741
498.00        271.3247
499.00        284.3768
500.00          297.93
501.00          286.03
502.00        285.0995
503.00        311.3081
504.00        304.8994
505.00        302.9118
506.00        317.2466
507.00        312.0559
508.00        322.1741
509.00         348.271
510.00        367.3765
511.00        372.6144
512.00        377.9987
513.00        400.5125
514.00        403.7225
515.00        392.2979
516.00        388.7779
517.00        414.7858
518.00        447.3019
519.00        461.4645
520.00        473.4781
521.00        486.4326
522.00        503.8939
523.00        535.2486
524.00        540.7306
525.00        535.0712
526.00        578.1213
527.00        608.0662
528.00        619.1262
529.00        637.1043
530.00        647.6056
531.00        671.5709
532.00        718.0722
533.00        724.7716
534.00        731.5887
535.00        770.2471
536.00        800.3513
537.00        821.6661
538.00        847.3086
539.00        911.2514
540.00         942.058
541.00        947.5794
542.00        984.4703
543.00        1031.676
544.00        1068.197
545.00        1084.451
546.00        1119.303
547.00        1166.939
548.00        1208.474
549.00        1233.197
550.00        1253.953
551.00         1279.74
552.00        1300.504
553.00        1333.823
554.00        1375.304
555.00        1405.971
556.00        1473.005
557.00        1539.995
558.00        1564.422
559.00        1598.605
560.00        1656.154
561.00         1725.05
562.00        1756.835
563.00        1783.061
564.00        1818.797
565.00        1844.042
566.00        1869.601
567.00        1902.394
568.00        1947.043
569.00         2014.35
570.00        2080.823
571.00         2122.83
572.00        2140.844
573.00        2174.864
574.00        2235.634
575.00        2270.485
576.00        2285.798
577.00        2299.969
578.00        2328.052
579.00        2405.413
580.00        2463.902
581.00        2446.304
582.00         2494.88
583.00        2559.311
584.00        2587.468
585.00        2606.433
586.00        2670.732
587.00        2747.378
588.00        2714.922
589.00         2773.69
590.00        2853.432
591.00        2822.802
592.00        2841.785
593.00        2892.663
594.00        2938.569
595.00        2997.826
596.00        3038.882
597.00        3066.602
598.00         3120.56
599.00          3122.3
600.00        3115.557
601.00        3163.223
602.00         3155.96
603.00        3164.164
604.00        3239.156
605.00        3307.599
606.00        3369.018
607.00        3421.014
608.00        3463.076
609.00        3525.046
610.00        3581.785
611.00        3608.927
612.00        3695.202
613.00        3754.393
614.00         3764.91
615.00        3865.588
616.00         3928.83
617.00        3963.767
618.00         4045.22
619.00        4148.584
620.00        4214.163
621.00        4226.107
622.00        4299.746
623.00        4415.472
624.00        4531.148
625.00        4606.792
626.00        4676.508
627.00        4735.543
628.00        4773.839
629.00        4837.829
630.00        4924.427
631.00        5028.543
632.00        5177.969
633.00        5242.046
634.00        5271.082
635.00        5391.346
636.00        5508.854
637.00         5618.66
638.00        5725.328
639.00        5795.725
640.00        5920.505
641.00        6079.772
642.00        6174.921
643.00        6258.737
644.00        6353.768
645.00        6473.811
646.00        6623.929
647.00        6770.863
648.00        6885.875
649.00        6965.327
650.00        7086.807
651.00        7248.728
652.00        7408.097
653.00        7528.161
654.00        7653.584
655.00        7791.652
656.00        7867.945
657.00        8083.972
658.00        8299.854
659.00        8355.835
660.00        8509.646
661.00        8702.936
662.00        8873.053
663.00        9012.075
664.00        9168.665
665.00        9333.034
666.00        9479.479
667.00        9701.384
668.00        9864.289
669.00        9968.832
670.00        10180.64
671.00        10388.73
672.00        10509.18
673.00        10760.17
674.00        10940.94
675.00        11106.18
676.00        11298.73
677.00         11511.2
678.00        11705.52
679.00         11891.2
680.00        12096.19
681.00        12333.76
682.00        12548.39
683.00        12742.12
684.00         12980.1
685.00        13176.12
686.00        13419.92
687.00        13730.21
688.00        13855.76
689.00         14001.2
690.00        14232.23
691.00        14491.77
692.00        14755.21
693.00        15020.96
694.00        15262.94
695.00        15543.47
696.00        15679.21
697.00        15821.63
698.00        16148.94
699.00        16407.71
700.00        16587.43
701.00        16754.46
702.00        17004.24
703.00        17237.54
704.00        17465.06
705.00        17696.63
706.00        17803.69
707.00        18011.89
708.00        18281.05
709.00        18424.35
710.00        18689.78
711.00        18779.68
712.00        19072.46
713.00        19229.63
714.00        19448.51
715.00        19625.26
716.00         19731.4
717.00        19941.55
718.00        20186.46
719.00        20358.45
720.00         20407.7
721.00         20422.5
722.00         20574.2
723.00           20868
724.00        21097.74
725.00         21291.4
726.00        21426.43
727.00        21504.28
728.00        21669.65
729.00        21778.69
730.00        21851.86
731.00        21995.69
732.00         22064.4
733.00        22197.56
734.00         22404.9
735.00        22525.99
736.00        22615.76
737.00        22728.47
738.00        22883.34
739.00         22952.2
740.00        23105.87
741.00           23294
742.00        23371.42
743.00        23532.92
744.00        23552.57
745.00        23581.65
746.00        23733.09
747.00        23878.18
748.00        23945.61
749.00        24117.02
750.00        24193.33
751.00        24288.62
752.00         24344.8
753.00        24372.31
754.00        24429.98
755.00         24616.4
756.00        24738.69
757.00        24680.72
758.00        24810.01
759.00        24873.73
760.00        24819.75
761.00        24727.02
762.00        24765.11
763.00         24847.8
764.00         24886.9
765.00        24777.87
766.00        24963.57
767.00        25075.96
768.00        25006.01
769.00        25098.83
770.00        25110.15
771.00         25112.6
772.00        25144.56
773.00        25032.79
774.00        25080.93
775.00        25190.48
776.00        25193.99
777.00        25112.19
778.00        25107.43
779.00        25142.29
780.00         25094.1
781.00        25135.95
782.00        25116.73
783.00        25094.06
784.00        25130.01
785.00         25175.5
786.00        25107.21
787.00        25105.77
788.00           25235
789.00        25114.89
790.00        25182.78
791.00        25164.84
792.00        25160.92
793.00        25149.09
794.00        25109.72
795.00         25104.8
796.00        25098.65
797.00        25118.93
798.00        25082.25
799.00        25024.88
800.00        25071.11
801.00        25117.94
802.00        25150.63
803.00        25061.83
804.00        24996.76
805.00        25030.68
806.00        25077.77
807.00           25016
808.00        25153.46
809.00        25192.44
810.00         25091.1
811.00        25021.44
812.00        25097.33
813.00        25003.21
814.00        25030.29
815.00        25065.12
816.00        25047.29
817.00         25097.8
818.00        25044.54
819.00        24935.71
820.00        25055.72
821.00        25013.48
822.00        25092.11
823.00         25112.8
824.00        25110.83
825.00        25163.01
826.00        25151.55
827.00        25134.19
828.00        25129.81
829.00        25079.19
830.00        25169.76
831.00        25297.25
832.00        25337.79
833.00        25290.15
834.00        25249.96
835.00        25267.96
836.00        25341.64
837.00        25477.14
838.00        25378.53
839.00        25450.29
840.00        25539.97
841.00        25631.29
842.00        25533.59
843.00        25597.51
844.00        25735.52
845.00        25796.69
846.00        25836.24
847.00        25939.87
848.00        25921.83
849.00        25905.49
850.00        26233.73
851.00        26135.73
852.00        26187.54
853.00        26362.27
854.00        26232.67
855.00        26404.65
856.00        26572.49
857.00        26590.26
858.00        26474.37
859.00        26508.56
860.00        26725.49
861.00        26915.24
862.00        26929.12
863.00         26938.1
864.00        26847.31
865.00        26974.39
866.00        27165.06
867.00        27107.01
868.00        27189.78
869.00        27329.99
870.00        27401.49
871.00        27360.73
872.00        27446.46
873.00        27605.48
874.00        27679.68
875.00        27673.98
876.00         27767.6
877.00        27732.31
878.00        27762.39
879.00        27870.37
880.00        27986.52
881.00        28062.76
882.00        28085.22
883.00        28122.78
884.00        28180.57
885.00        28217.97
886.00        28342.98
887.00        28336.52
888.00        28319.81
889.00         28384.5
890.00        28461.63
891.00        28581.09
892.00        28605.09
893.00        28571.99
894.00        28644.28
895.00        28614.13
896.00        28598.87
897.00        28693.41
898.00        28774.18
899.00        28629.39
900.00        28721.41
901.00         28709.4
902.00        28665.38
903.00        28763.38
904.00        28806.03
905.00        28846.57
906.00        28614.39
907.00        28427.22
908.00        28511.39
909.00        28463.62
910.00        28549.95
911.00        28555.15
912.00        28420.85
913.00        28398.69
914.00        28446.14
915.00        28242.55
916.00        28137.14
917.00        28163.44
918.00        28117.09
919.00        27858.55
920.00        27821.82
921.00        27718.16
922.00        27614.61
923.00        27484.72
924.00        27145.49
925.00        27088.95
926.00        27072.46
927.00         26854.2
928.00        26522.76
929.00        26366.94
930.00        26160.04
931.00        25841.45
932.00        25500.84
933.00        25223.69
934.00         24567.9
935.00        24146.21
936.00        23557.96
937.00        22954.44
938.00        22403.26
939.00        22000.31
940.00        21670.36
941.00        21599.19
942.00        21412.01
943.00        21271.85
944.00         21245.6
945.00        21304.47
946.00        21458.51
947.00        21575.99
948.00        21564.68
949.00        21704.53
950.00        21866.91
951.00        22038.16
952.00        22104.23
953.00        22211.32
954.00        22241.55
955.00        22282.28
956.00        22394.84
957.00        22490.29
958.00        22530.56
959.00        22681.98
960.00        22590.17
961.00        22531.98
962.00        22482.21
963.00         22398.6
964.00        22369.87
965.00        22206.16
966.00        21899.06
967.00        21786.19
968.00        21800.45
969.00        21621.05
970.00        21643.41
971.00        21497.69
972.00         21575.6
973.00        21497.99
974.00        21214.35
975.00        21362.42
976.00        21257.56
977.00        21155.18
978.00        20939.52
979.00        20755.56
980.00        20653.98
981.00         20292.7
982.00        20174.16
983.00        20026.39
984.00        19829.38
985.00        19666.31
986.00        19519.15
987.00        19203.94
988.00        19048.04
989.00        18719.57
990.00         18354.1
991.00        17934.56
992.00        17351.77
993.00        16861.08
994.00        16292.96
995.00        15707.74
996.00        15213.18
997.00        14722.86
998.00        14100.77
999.00        13540.59
1000.00        13160.69
1001.00        12600.99
1002.00        12067.64
1003.00        11613.35
1004.00        11031.41
1005.00        10564.17
1006.00        10089.32
1007.00        9573.855
1008.00        9123.939
1009.00        8733.573
1010.00        8282.677
1011.00        7773.108
1012.00        7314.827
1013.00        6920.226
1014.00        6516.108
1015.00        6105.952
1016.00        5716.466
1017.00        5331.201
1018.00        4994.255
1019.00        4672.159
1020.00        4248.472
