SpectraSmart Spectrum 2.6.17.30709
--------- Device Information -----------
Spectrum Name :  Spectrum_0
Saving Time :  2021/11/14 21:10:02
Spectro-Module Model Name : SE1030-VNIR
Spectro-Module Serial Number : OS361AC55010184
Wavelength Start : 350
Wavelength End : 1020
Wavelength Unit : Wavelength(nm)
Spectrum Unit : Intensity(Counts)
-----------Spectrum Setting ------------
Integration Time : 50ms
Average : 1
Boxcar : 0
Background removal :  enabled
linearity correction :  enabled
SC :  disabled
Intensity correction :  disabled
DWT denoise :  enabled
savitzky-golay :  disabled
FFT :  disabled
Running average :  disabled
Kalman :  disabled
High pass :  disabled
---------------BEGIN--------------------
Wavelength(nm)          Intensity(Counts)
350.00        79.86515
351.00        67.56278
352.00        50.39672
353.00        67.83368
354.00        72.95476
355.00        69.25962
356.00        79.96786
357.00         77.2598
358.00        72.31667
359.00        87.19427
360.00        90.85158
361.00        87.67033
362.00        95.99877
363.00         97.9766
364.00        96.67092
365.00        102.2966
366.00        101.1561
367.00        97.62142
368.00        101.1484
369.00         103.617
370.00        101.0353
371.00         92.9347
372.00        94.92992
373.00        103.9975
374.00         107.519
375.00        107.1142
376.00        101.5985
377.00        91.33154
378.00        91.79664
379.00        100.2721
380.00        105.4156
381.00        107.6762
382.00        106.3367
383.00        102.7601
384.00        105.4976
385.00        111.9827
386.00        117.0361
387.00        105.8827
388.00        99.10049
389.00        121.9657
390.00        117.6446
391.00        102.7289
392.00         114.872
393.00        113.8286
394.00        110.4727
395.00         124.588
396.00        123.8045
397.00        116.6688
398.00        119.5558
399.00        112.3936
400.00        102.7949
401.00        103.1117
402.00        111.3479
403.00        121.2021
404.00        126.2508
405.00        127.0011
406.00        128.0288
407.00        131.5005
408.00         116.585
409.00        104.5223
410.00        114.7611
411.00        110.6905
412.00        114.2915
413.00        137.1097
414.00        119.6036
415.00        101.6903
416.00        115.2895
417.00        111.1257
418.00        106.5716
419.00        111.7014
420.00        91.06903
421.00        91.33702
422.00        127.9833
423.00        130.2774
424.00        131.5096
425.00        142.3675
426.00        116.7501
427.00        106.8137
428.00         125.597
429.00        124.5256
430.00        124.7838
431.00        130.2854
432.00        125.6824
433.00        123.5428
434.00        124.8899
435.00        119.9872
436.00        126.7531
437.00        139.0832
438.00        133.3515
439.00        141.2448
440.00        150.0254
441.00          126.29
442.00         135.244
443.00        152.6732
444.00        128.8134
445.00        138.0962
446.00        162.1961
447.00        159.4213
448.00        160.6821
449.00        161.4562
450.00        154.8082
451.00        157.1301
452.00        163.1526
453.00        166.7789
454.00        190.5137
455.00        199.7817
456.00        177.5544
457.00         181.202
458.00        187.3344
459.00        182.6454
460.00        199.3253
461.00        204.8208
462.00        194.1656
463.00        206.2237
464.00        216.1214
465.00        216.4529
466.00        219.5089
467.00        221.1019
468.00        223.7549
469.00        231.3181
470.00        235.9913
471.00         235.099
472.00        232.1301
473.00        228.7994
474.00        236.0992
475.00        258.1158
476.00        255.7919
477.00        244.2476
478.00        250.5033
479.00        255.8819
480.00        270.2346
481.00        291.9713
482.00        274.6505
483.00         269.602
484.00        302.2023
485.00        307.8838
486.00        320.8154
487.00        340.0647
488.00        305.9052
489.00        314.4736
490.00        354.5154
491.00        327.5992
492.00        333.0854
493.00         357.136
494.00        338.6218
495.00        363.7509
496.00        402.2076
497.00        399.6422
498.00        406.3383
499.00        412.7424
500.00        408.9629
501.00        439.8562
502.00        459.1057
503.00        444.6426
504.00        471.1658
505.00        488.8656
506.00        483.2275
507.00          506.38
508.00        516.8577
509.00        517.9014
510.00        549.1409
511.00        560.7806
512.00        571.3246
513.00        621.7277
514.00         607.485
515.00        594.7163
516.00        659.9932
517.00        679.2866
518.00        679.7847
519.00        703.0785
520.00        714.5852
521.00        751.2812
522.00        804.9722
523.00        780.7518
524.00        809.5488
525.00         887.751
526.00        886.7001
527.00         919.688
528.00        977.0326
529.00        1003.314
530.00        1020.007
531.00        1058.698
532.00        1130.667
533.00        1176.601
534.00        1192.341
535.00        1203.019
536.00        1263.755
537.00        1318.844
538.00        1348.675
539.00        1409.527
540.00        1451.161
541.00        1487.181
542.00        1566.063
543.00        1596.677
544.00         1623.85
545.00        1710.063
546.00        1762.213
547.00        1796.457
548.00        1848.785
549.00        1951.745
550.00        2008.895
551.00         2003.67
552.00        2046.468
553.00        2150.177
554.00         2250.74
555.00        2248.451
556.00        2311.057
557.00        2402.358
558.00        2429.933
559.00        2525.866
560.00        2585.492
561.00        2560.197
562.00        2670.878
563.00        2762.702
564.00        2792.361
565.00        2905.176
566.00        2945.847
567.00        2954.603
568.00        3050.512
569.00        3148.153
570.00        3219.585
571.00         3264.84
572.00        3276.036
573.00        3330.786
574.00        3437.563
575.00        3469.877
576.00        3496.075
577.00        3551.715
578.00        3629.946
579.00        3701.808
580.00        3754.221
581.00        3790.906
582.00        3829.944
583.00        3858.257
584.00        3884.429
585.00        3981.708
586.00        4053.582
587.00        4071.226
588.00        4084.533
589.00        4167.052
590.00        4266.378
591.00          4303.3
592.00         4326.21
593.00        4392.557
594.00        4509.382
595.00         4536.79
596.00          4594.3
597.00        4676.675
598.00        4646.515
599.00        4688.728
600.00        4761.367
601.00         4764.55
602.00         4739.87
603.00        4779.721
604.00        4911.816
605.00         4993.18
606.00        5053.087
607.00        5107.257
608.00        5156.473
609.00        5209.868
610.00         5279.15
611.00        5366.658
612.00        5439.469
613.00        5520.982
614.00        5621.369
615.00        5717.812
616.00        5787.159
617.00        5854.769
618.00        5962.135
619.00        6090.904
620.00        6197.916
621.00        6266.099
622.00        6360.826
623.00        6469.209
624.00        6579.701
625.00        6702.064
626.00        6773.995
627.00        6866.711
628.00        7046.286
629.00        7148.583
630.00        7244.771
631.00        7382.618
632.00        7500.277
633.00        7615.835
634.00        7758.789
635.00        7949.427
636.00        8057.486
637.00        8173.113
638.00        8368.078
639.00        8534.835
640.00          8643.5
641.00        8744.312
642.00        8931.481
643.00        9110.384
644.00        9273.791
645.00        9434.379
646.00        9572.074
647.00        9703.734
648.00        9864.062
649.00         10077.7
650.00           10303
651.00        10468.37
652.00        10561.48
653.00        10722.58
654.00        10926.56
655.00        11138.99
656.00        11360.79
657.00        11544.44
658.00        11735.12
659.00        11981.51
660.00        12213.63
661.00        12439.84
662.00        12626.21
663.00        12732.16
664.00         12956.8
665.00        13252.59
666.00        13494.81
667.00        13730.09
668.00        13922.61
669.00        14098.16
670.00        14319.15
671.00        14630.53
672.00         14908.7
673.00        15065.95
674.00        15331.71
675.00        15618.79
676.00        15890.86
677.00        16196.65
678.00        16507.97
679.00        16767.19
680.00        16936.46
681.00        17263.06
682.00        17514.08
683.00        17687.59
684.00        18011.82
685.00        18286.96
686.00        18684.69
687.00        18998.18
688.00        19187.49
689.00        19499.07
690.00        19836.86
691.00        20011.36
692.00        20470.61
693.00        20757.18
694.00        20975.42
695.00        21334.54
696.00        21671.12
697.00        21994.72
698.00        22328.38
699.00        22430.21
700.00        22681.12
701.00         23122.7
702.00        23406.63
703.00         23615.9
704.00        23870.75
705.00        24211.31
706.00        24472.25
707.00         24706.1
708.00        24916.46
709.00        25204.46
710.00        25552.74
711.00        25760.78
712.00         25860.1
713.00        26182.09
714.00        26419.38
715.00        26635.57
716.00        26704.69
717.00        26912.83
718.00         27126.3
719.00        27268.26
720.00        27358.96
721.00        27480.59
722.00        27561.03
723.00        27594.25
724.00        27833.01
725.00        28109.12
726.00        28391.62
727.00        28582.14
728.00        28733.06
729.00        28877.49
730.00        29021.47
731.00        29166.06
732.00           29301
733.00        29482.57
734.00        29707.44
735.00        29914.47
736.00        30015.25
737.00        30147.71
738.00        30397.49
739.00        30560.22
740.00        30807.76
741.00        31064.07
742.00        31106.97
743.00         31378.6
744.00         31337.3
745.00        31240.72
746.00        31633.74
747.00        31720.85
748.00        31675.21
749.00        31769.95
750.00        32096.24
751.00         32169.7
752.00        32184.47
753.00        32296.89
754.00        32332.58
755.00        32301.62
756.00         32459.9
757.00        32541.55
758.00        32488.99
759.00        32605.13
760.00         32758.2
761.00        32657.55
762.00        32686.85
763.00        32718.34
764.00        32728.81
765.00        32703.37
766.00        32764.14
767.00        32787.55
768.00        32867.32
769.00        32876.96
770.00        32712.03
771.00        32704.54
772.00        32875.38
773.00        32787.39
774.00        32763.48
775.00        32853.91
776.00        32940.57
777.00        32824.11
778.00        32736.58
779.00        32686.61
780.00         32574.2
781.00        32731.62
782.00        32653.53
783.00        32634.91
784.00         32629.4
785.00         32530.4
786.00        32623.68
787.00        32671.36
788.00        32546.24
789.00        32608.16
790.00        32566.94
791.00        32484.13
792.00        32425.68
793.00         32307.9
794.00           32272
795.00        32345.68
796.00           32380
797.00        32147.09
798.00         32188.8
799.00        32249.43
800.00        32163.27
801.00        32304.12
802.00        32213.08
803.00         32038.6
804.00        32069.79
805.00        31936.55
806.00        32007.26
807.00        32099.96
808.00        31969.39
809.00        31936.87
810.00        31939.46
811.00        31882.16
812.00        31757.87
813.00        31697.22
814.00        31758.62
815.00        31760.38
816.00        31745.82
817.00        31934.35
818.00        31842.41
819.00        31805.35
820.00        31738.56
821.00        31613.78
822.00        31569.72
823.00        31597.24
824.00        31620.38
825.00        31648.96
826.00        31575.29
827.00        31547.19
828.00        31596.44
829.00         31573.1
830.00        31482.22
831.00        31582.04
832.00        31787.22
833.00         31782.9
834.00        31759.49
835.00        31822.28
836.00        31854.43
837.00        31736.78
838.00         31805.5
839.00         31947.6
840.00        32005.99
841.00         31920.8
842.00        31928.92
843.00        32101.76
844.00        32223.24
845.00        32151.13
846.00        32158.99
847.00        32186.56
848.00        32300.49
849.00        32380.05
850.00        32343.58
851.00        32323.78
852.00        32409.12
853.00        32558.94
854.00        32640.39
855.00        32542.74
856.00        32666.44
857.00        32727.69
858.00        32755.98
859.00        32746.88
860.00        32915.92
861.00        33014.11
862.00        33005.06
863.00        33242.54
864.00        33143.82
865.00        33203.38
866.00        33376.19
867.00        33317.97
868.00        33287.86
869.00        33248.99
870.00        33247.46
871.00        33274.66
872.00        33212.24
873.00        33244.32
874.00        33183.89
875.00        33060.07
876.00        33073.74
877.00        33162.34
878.00        33133.02
879.00        33188.97
880.00        33318.11
881.00        33421.77
882.00        33505.16
883.00        33601.17
884.00        33651.15
885.00        33608.24
886.00        33784.88
887.00        33944.57
888.00        33973.64
889.00        33964.03
890.00        34070.95
891.00        34171.51
892.00        34182.34
893.00        34236.03
894.00        34453.41
895.00        34515.66
896.00        34416.93
897.00        34409.18
898.00        34445.36
899.00        34212.99
900.00        34234.43
901.00        34315.21
902.00        34276.92
903.00        34120.54
904.00        34334.42
905.00        34187.11
906.00        34087.27
907.00        34206.05
908.00        34175.81
909.00        34163.34
910.00        34040.72
911.00        33881.97
912.00        33636.97
913.00        33527.91
914.00        33584.04
915.00        33372.24
916.00        33141.01
917.00        32991.48
918.00         32847.7
919.00        32613.14
920.00        32500.38
921.00        32401.81
922.00        32153.32
923.00        31755.62
924.00        31536.91
925.00        31323.85
926.00         30974.2
927.00         30578.2
928.00        30353.16
929.00        29813.36
930.00        29383.71
931.00        28899.86
932.00        28196.47
933.00        27457.91
934.00        26444.35
935.00        25107.99
936.00        23583.57
937.00        21975.21
938.00        20691.44
939.00        19479.25
940.00        18544.88
941.00        17794.19
942.00        17253.09
943.00        17177.06
944.00        17161.63
945.00        17235.72
946.00        17502.66
947.00        17929.98
948.00        18324.23
949.00        18749.02
950.00        19235.49
951.00        19727.99
952.00         20210.2
953.00        20577.03
954.00        20996.84
955.00        21520.18
956.00        21890.12
957.00        22193.08
958.00        22563.68
959.00        22801.03
960.00        22966.01
961.00        23170.73
962.00        23468.32
963.00        23666.42
964.00        23558.41
965.00        23429.66
966.00        23549.63
967.00        23540.48
968.00        23452.13
969.00        23611.63
970.00        23715.31
971.00         23609.7
972.00        23631.47
973.00        23721.84
974.00        23787.47
975.00        23920.17
976.00        23884.92
977.00        23683.03
978.00        23425.97
979.00        23265.72
980.00         23220.8
981.00        23016.39
982.00        22919.89
983.00        22655.85
984.00        22517.24
985.00        22458.24
986.00        22183.95
987.00        21954.93
988.00        21813.89
989.00        21509.18
990.00        21014.89
991.00         20463.8
992.00        19944.25
993.00         19403.2
994.00        18928.68
995.00        18364.26
996.00        17812.11
997.00        17339.19
998.00        16805.27
999.00         16053.2
1000.00        15560.52
1001.00        14828.27
1002.00        14154.51
1003.00        13674.62
1004.00         13094.6
1005.00        12503.45
1006.00        11809.73
1007.00        11204.86
1008.00        10682.25
1009.00        10172.95
1010.00        9638.249
1011.00        9059.348
1012.00        8564.868
1013.00        8027.782
1014.00        7499.473
1015.00        7018.162
1016.00        6551.232
1017.00        6082.911
1018.00        5676.704
1019.00        5295.369
1020.00        4823.358
