SpectraSmart Spectrum 2.6.17.30709
--------- Device Information -----------
Spectrum Name :  Spectrum_0
Saving Time :  2021/11/14 21:10:45
Spectro-Module Model Name : SE1030-VNIR
Spectro-Module Serial Number : OS361AC55010184
Wavelength Start : 350
Wavelength End : 1020
Wavelength Unit : Wavelength(nm)
Spectrum Unit : Intensity(Counts)
-----------Spectrum Setting ------------
Integration Time : 50ms
Average : 1
Boxcar : 0
Background removal :  enabled
linearity correction :  enabled
SC :  disabled
Intensity correction :  disabled
DWT denoise :  enabled
savitzky-golay :  disabled
FFT :  disabled
Running average :  disabled
Kalman :  disabled
High pass :  disabled
---------------BEGIN--------------------
Wavelength(nm)          Intensity(Counts)
350.00          54.727
351.00        60.62881
352.00        72.89455
353.00        72.53319
354.00        75.94334
355.00        80.00162
356.00        76.89909
357.00        78.93993
358.00        88.55139
359.00        100.1964
360.00        109.1762
361.00        105.2066
362.00        79.35583
363.00        84.42588
364.00        99.44559
365.00        74.31662
366.00         86.3299
367.00        113.5498
368.00        97.61253
369.00        95.59303
370.00        101.8346
371.00        90.02835
372.00         80.3713
373.00        83.42303
374.00        102.7807
375.00        96.99101
376.00        77.67101
377.00        77.70831
378.00        92.49065
379.00        105.4102
380.00         97.9668
381.00        92.58092
382.00        91.67416
383.00        86.85296
384.00        99.12441
385.00        110.7354
386.00        97.36952
387.00        93.27731
388.00        98.15253
389.00         98.1788
390.00        96.66376
391.00        95.48222
392.00        96.68701
393.00        103.3507
394.00        107.1608
395.00        100.0851
396.00        101.9966
397.00        107.2537
398.00        103.4642
399.00        115.5592
400.00        122.4133
401.00        102.7467
402.00        113.3076
403.00        124.8722
404.00        102.2701
405.00        102.8474
406.00        111.8777
407.00        105.7223
408.00        109.4167
409.00        112.1488
410.00        105.6583
411.00        115.0685
412.00        123.2344
413.00        114.7517
414.00        115.1237
415.00        112.6113
416.00        102.8757
417.00        128.9421
418.00        139.6791
419.00         110.709
420.00        119.2631
421.00        130.5076
422.00        120.7432
423.00        114.5338
424.00        113.9281
425.00        119.3495
426.00        126.8334
427.00        127.0719
428.00        121.2842
429.00        126.8595
430.00        127.4107
431.00        120.8614
432.00        123.6555
433.00        124.1432
434.00        122.9981
435.00        127.8399
436.00        141.7618
437.00        152.0292
438.00        137.8017
439.00        132.9801
440.00        138.7865
441.00        136.4129
442.00        141.4001
443.00        146.4236
444.00        138.1066
445.00        149.2052
446.00        157.0587
447.00        133.5522
448.00        148.5788
449.00        170.3724
450.00        155.1545
451.00        165.5041
452.00        172.1598
453.00        150.6484
454.00        161.6682
455.00        176.0753
456.00        170.4117
457.00        183.0476
458.00        191.8999
459.00        185.6335
460.00        188.4533
461.00        186.0627
462.00        179.8527
463.00        196.3701
464.00        209.2732
465.00        211.9247
466.00        225.1936
467.00        214.9059
468.00        197.3897
469.00        220.9739
470.00        216.9985
471.00        202.7503
472.00        230.4686
473.00        230.2068
474.00        225.1626
475.00        257.3926
476.00        250.4197
477.00        246.8075
478.00        288.9615
479.00        280.0119
480.00        266.7799
481.00         290.094
482.00        284.2496
483.00        278.0013
484.00        288.2601
485.00        289.3219
486.00        296.9987
487.00        314.6926
488.00        325.9192
489.00        343.5896
490.00         357.583
491.00        342.4577
492.00        345.8305
493.00        363.2668
494.00        366.1535
495.00        365.5276
496.00        372.9581
497.00        393.5122
498.00        406.9965
499.00        408.9168
500.00        406.4663
501.00        432.1792
502.00        446.5685
503.00        430.7747
504.00        459.6905
505.00        470.4613
506.00        454.3239
507.00        498.2894
508.00        521.6125
509.00        522.1174
510.00        560.7446
511.00        574.6862
512.00        574.2751
513.00        596.1426
514.00        608.1752
515.00        616.7456
516.00        633.9869
517.00          650.58
518.00        667.0911
519.00        687.5748
520.00        725.6522
521.00        757.5676
522.00        775.3809
523.00        805.6541
524.00        839.2225
525.00        870.3851
526.00        902.5322
527.00        914.2628
528.00        934.7026
529.00        1000.383
530.00        1027.549
531.00        1041.856
532.00        1090.251
533.00        1144.859
534.00        1188.023
535.00        1214.623
536.00        1242.182
537.00         1298.45
538.00        1370.357
539.00         1392.75
540.00        1430.217
541.00        1488.436
542.00        1532.942
543.00        1577.237
544.00        1628.467
545.00        1687.055
546.00        1748.712
547.00        1787.606
548.00        1803.234
549.00        1869.554
550.00        1939.454
551.00        1993.383
552.00        2076.495
553.00        2133.135
554.00        2156.819
555.00        2172.308
556.00         2260.67
557.00        2361.423
558.00        2390.425
559.00        2487.885
560.00        2555.835
561.00        2539.486
562.00        2624.995
563.00         2710.86
564.00        2758.864
565.00        2843.709
566.00        2894.166
567.00        2931.064
568.00        3005.726
569.00        3092.143
570.00        3151.055
571.00        3169.803
572.00        3239.452
573.00        3297.701
574.00        3313.344
575.00        3353.472
576.00         3434.86
577.00         3530.16
578.00        3585.038
579.00        3634.873
580.00        3698.198
581.00        3772.752
582.00        3803.434
583.00        3832.981
584.00        3894.399
585.00        3925.178
586.00        3984.944
587.00        4063.001
588.00        4087.281
589.00        4140.992
590.00        4220.988
591.00        4286.634
592.00        4314.044
593.00        4341.424
594.00        4405.067
595.00        4490.726
596.00        4542.901
597.00        4561.982
598.00        4618.188
599.00         4624.75
600.00        4638.818
601.00        4726.624
602.00         4705.95
603.00        4703.065
604.00        4809.701
605.00        4918.532
606.00          4944.5
607.00        4940.486
608.00        5054.171
609.00        5166.229
610.00        5229.261
611.00        5259.283
612.00        5368.667
613.00        5479.917
614.00        5552.824
615.00        5677.338
616.00          5783.1
617.00        5841.723
618.00        5870.089
619.00        5910.037
620.00        6014.565
621.00        6178.754
622.00        6274.641
623.00        6372.727
624.00        6489.327
625.00        6549.971
626.00        6685.903
627.00        6820.206
628.00        6863.089
629.00        6999.312
630.00        7165.553
631.00        7294.904
632.00        7407.841
633.00        7502.607
634.00        7611.126
635.00        7760.261
636.00        7883.293
637.00        8018.575
638.00        8196.208
639.00        8346.131
640.00        8507.947
641.00        8670.896
642.00        8797.014
643.00        8900.663
644.00        9046.675
645.00        9232.531
646.00        9380.067
647.00        9545.908
648.00        9730.868
649.00        9876.568
650.00        10043.99
651.00        10250.21
652.00        10469.17
653.00        10619.31
654.00        10761.43
655.00        10945.64
656.00        11160.46
657.00        11400.21
658.00        11624.07
659.00        11804.31
660.00         11909.9
661.00        12103.81
662.00        12399.83
663.00        12614.51
664.00        12761.18
665.00        12978.48
666.00        13257.94
667.00        13505.96
668.00        13705.79
669.00        13882.83
670.00        14115.22
671.00         14303.9
672.00        14537.01
673.00        14888.29
674.00        15194.42
675.00        15413.29
676.00        15602.64
677.00        15891.02
678.00        16097.34
679.00        16299.85
680.00        16607.26
681.00        16908.94
682.00        17203.53
683.00         17484.5
684.00        17746.46
685.00        18019.52
686.00         18287.5
687.00        18545.38
688.00        18946.51
689.00         19129.2
690.00        19276.99
691.00        19781.52
692.00        20102.75
693.00        20328.18
694.00        20612.25
695.00         20976.2
696.00        21211.62
697.00        21419.38
698.00        21761.42
699.00        22098.96
700.00        22279.25
701.00        22428.19
702.00        22873.66
703.00        23183.18
704.00        23398.36
705.00        23726.63
706.00        23988.48
707.00        24289.22
708.00        24540.75
709.00        24774.57
710.00         25103.7
711.00        25321.17
712.00         25398.8
713.00        25567.07
714.00        25865.84
715.00        26173.46
716.00        26359.91
717.00        26314.16
718.00        26474.75
719.00        26748.75
720.00        26688.11
721.00        26801.15
722.00        26958.78
723.00        27142.93
724.00        27435.83
725.00        27645.02
726.00        27788.92
727.00        27985.95
728.00        28101.54
729.00        28178.38
730.00        28436.79
731.00        28675.96
732.00        28700.29
733.00         28925.8
734.00         29283.7
735.00        29221.42
736.00        29357.57
737.00        29640.48
738.00        29625.83
739.00        29909.42
740.00        30186.23
741.00        30301.62
742.00        30238.65
743.00        30409.77
744.00        30610.51
745.00        30691.24
746.00         30647.7
747.00         30849.2
748.00        31055.26
749.00        31167.06
750.00        31300.53
751.00        31320.49
752.00        31359.76
753.00        31463.04
754.00        31542.87
755.00         31689.5
756.00        31717.94
757.00        31739.19
758.00        31840.31
759.00        31920.53
760.00        31989.38
761.00        31847.84
762.00        31906.21
763.00        31936.08
764.00        31952.42
765.00        32136.81
766.00        32171.39
767.00        32182.69
768.00        32198.08
769.00        32163.48
770.00        32083.08
771.00        32035.81
772.00        32047.82
773.00        32047.67
774.00        32135.86
775.00        32158.75
776.00        32027.86
777.00         31845.1
778.00        31939.66
779.00        32047.74
780.00        31959.83
781.00        32050.46
782.00        32061.22
783.00        32026.42
784.00        31898.51
785.00         31876.2
786.00        31821.72
787.00        31910.23
788.00         31763.2
789.00        31842.53
790.00        31722.78
791.00        31580.56
792.00        31605.29
793.00        31562.03
794.00        31583.73
795.00        31599.65
796.00        31532.24
797.00        31565.41
798.00        31531.08
799.00        31428.56
800.00        31361.73
801.00           31454
802.00        31418.74
803.00        31309.01
804.00         31309.7
805.00        31293.88
806.00        31323.86
807.00        31280.85
808.00        31109.71
809.00         31159.5
810.00        31183.06
811.00        31057.77
812.00        31197.58
813.00        31081.66
814.00        31098.36
815.00        31092.64
816.00        31042.73
817.00        31067.03
818.00        31004.72
819.00        30904.36
820.00        30810.08
821.00        30687.54
822.00        30849.21
823.00        30920.57
824.00        30784.79
825.00        30987.86
826.00        30884.64
827.00        30823.37
828.00        30948.24
829.00        30881.85
830.00        30764.44
831.00        30787.08
832.00        30868.88
833.00        30830.21
834.00        30896.82
835.00        30866.13
836.00        30848.91
837.00        30971.65
838.00        31000.75
839.00         31073.3
840.00        31115.77
841.00        31138.76
842.00         31113.4
843.00        31337.88
844.00        31260.86
845.00        31438.53
846.00        31496.71
847.00        31441.21
848.00        31434.24
849.00        31408.35
850.00        31626.91
851.00        31510.09
852.00        31590.65
853.00        31753.99
854.00        31643.77
855.00        31711.83
856.00        31998.23
857.00        32036.93
858.00        31884.36
859.00        32123.63
860.00        32063.51
861.00        32021.94
862.00        32150.79
863.00        32157.67
864.00        32086.24
865.00        32187.49
866.00        32375.65
867.00        32303.54
868.00        32608.21
869.00        32519.79
870.00        32488.45
871.00        32674.26
872.00        32457.01
873.00        32372.49
874.00         32393.1
875.00        32359.01
876.00        32294.12
877.00        32263.44
878.00        32515.41
879.00        32581.78
880.00        32400.79
881.00        32458.16
882.00         32616.7
883.00         32691.3
884.00        32710.63
885.00         32906.9
886.00        32994.77
887.00        33052.64
888.00        33086.14
889.00        33153.91
890.00        33243.51
891.00        33453.48
892.00        33438.42
893.00        33378.41
894.00        33586.28
895.00        33618.57
896.00        33668.01
897.00        33629.41
898.00        33611.02
899.00        33843.36
900.00        33811.51
901.00        33633.46
902.00        33462.29
903.00        33399.67
904.00        33315.01
905.00        33559.77
906.00        33373.01
907.00        33289.38
908.00        33356.05
909.00        33226.64
910.00        33181.19
911.00        33075.52
912.00        33060.63
913.00        33056.37
914.00        32890.57
915.00         32631.6
916.00        32462.82
917.00        32336.58
918.00        32012.26
919.00        31892.71
920.00        31593.84
921.00        31350.13
922.00        31259.76
923.00        30911.56
924.00        30637.43
925.00        30406.93
926.00         30131.7
927.00        29798.13
928.00        29529.51
929.00        29069.01
930.00        28721.97
931.00        28181.36
932.00        27368.81
933.00        26809.93
934.00        25780.74
935.00        24515.68
936.00        22883.09
937.00        21442.07
938.00        20101.99
939.00        18982.48
940.00         17954.9
941.00        17180.86
942.00        16754.69
943.00        16582.85
944.00        16610.56
945.00        16779.31
946.00        17068.43
947.00        17369.92
948.00        17889.81
949.00        18261.31
950.00        18651.01
951.00        19111.54
952.00         19573.7
953.00        19956.64
954.00        20369.99
955.00        20865.81
956.00        21268.87
957.00        21566.62
958.00         21861.8
959.00        22222.36
960.00        22464.12
961.00        22708.82
962.00         22909.4
963.00        22995.77
964.00        23011.61
965.00        23042.47
966.00        23034.71
967.00        23065.93
968.00        23034.96
969.00        22907.52
970.00        23080.58
971.00        22949.88
972.00        22992.31
973.00        23103.38
974.00        23098.66
975.00        23132.92
976.00        23176.53
977.00        23064.17
978.00        22889.85
979.00        22779.18
980.00        22702.06
981.00        22436.53
982.00        22372.98
983.00        22166.44
984.00        21978.36
985.00        21869.25
986.00        21629.69
987.00        21390.26
988.00        21286.72
989.00        21005.65
990.00        20457.37
991.00        19891.47
992.00        19461.28
993.00        18881.46
994.00        18306.34
995.00        17796.12
996.00        17316.96
997.00        16723.44
998.00        16001.24
999.00        15515.26
1000.00        14987.47
1001.00        14452.17
1002.00        13844.03
1003.00        13233.58
1004.00        12736.32
1005.00        12179.57
1006.00        11652.09
1007.00        11095.24
1008.00        10553.88
1009.00        10066.42
1010.00        9579.116
1011.00        9006.174
1012.00        8529.204
1013.00        7988.644
1014.00        7495.282
1015.00        6985.227
1016.00        6449.347
1017.00         6057.31
1018.00        5581.957
1019.00        5256.841
1020.00        4781.467
