SpectraSmart Spectrum 2.6.17.30709
--------- Device Information -----------
Spectrum Name :  Spectrum_0
Saving Time :  2021/11/14 21:08:29
Spectro-Module Model Name : SE1030-VNIR
Spectro-Module Serial Number : OS361AC55010184
Wavelength Start : 350
Wavelength End : 1020
Wavelength Unit : Wavelength(nm)
Spectrum Unit : Intensity(Counts)
-----------Spectrum Setting ------------
Integration Time : 50ms
Average : 1
Boxcar : 0
Background removal :  enabled
linearity correction :  enabled
SC :  disabled
Intensity correction :  disabled
DWT denoise :  enabled
savitzky-golay :  disabled
FFT :  disabled
Running average :  disabled
Kalman :  disabled
High pass :  disabled
---------------BEGIN--------------------
Wavelength(nm)          Intensity(Counts)
350.00        69.87653
351.00        79.04922
352.00        89.71079
353.00        83.45126
354.00        88.04829
355.00        94.30698
356.00        82.09248
357.00        78.93547
358.00        87.68111
359.00        98.16012
360.00        103.1602
361.00        100.1908
362.00         91.3335
363.00        102.2714
364.00        116.5251
365.00        103.2416
366.00          93.656
367.00        92.12933
368.00         89.5433
369.00        100.3982
370.00          112.78
371.00        110.0542
372.00        96.64364
373.00        87.97551
374.00        98.68159
375.00        105.6977
376.00        106.7183
377.00        109.3789
378.00        114.8697
379.00        116.1602
380.00        104.0776
381.00        104.5208
382.00        110.4672
383.00        103.7647
384.00        104.1682
385.00        110.4427
386.00        114.0605
387.00        111.8028
388.00        108.3419
389.00        111.5649
390.00        112.9227
391.00        116.1838
392.00        127.1751
393.00        126.1477
394.00        123.2165
395.00        132.4699
396.00        132.3871
397.00        121.9628
398.00        110.4191
399.00        114.5446
400.00        124.8995
401.00        125.9465
402.00        109.6963
403.00        104.9324
404.00        131.8474
405.00        137.1258
406.00         125.476
407.00        118.9592
408.00        123.2178
409.00        130.6665
410.00        131.4212
411.00        119.2723
412.00        121.9763
413.00        149.4056
414.00        130.7023
415.00        110.6766
416.00         127.416
417.00        135.2497
418.00        134.7508
419.00        129.8025
420.00        124.4283
421.00        124.9079
422.00         132.069
423.00         141.249
424.00        141.6998
425.00        132.9868
426.00        133.4361
427.00         132.071
428.00        125.8012
429.00         124.202
430.00        124.8944
431.00         125.295
432.00        116.7651
433.00        125.6424
434.00        142.4144
435.00        120.3905
436.00        130.7368
437.00        156.8094
438.00        123.4144
439.00        121.4186
440.00        141.5397
441.00        124.6776
442.00        137.3382
443.00        158.7076
444.00        144.4613
445.00        147.5993
446.00        159.5528
447.00        155.5893
448.00        161.0972
449.00        163.4653
450.00        151.7342
451.00        164.1801
452.00        180.3174
453.00        177.2212
454.00        187.2585
455.00        188.8706
456.00         173.097
457.00         188.688
458.00         197.978
459.00        183.1042
460.00        188.7245
461.00        197.0309
462.00        199.3168
463.00        206.5645
464.00        205.5983
465.00        199.5267
466.00        211.6785
467.00        206.7499
468.00        199.4202
469.00         239.119
470.00        232.3518
471.00        209.2632
472.00        245.5145
473.00        247.4957
474.00        228.8134
475.00        234.5584
476.00        239.8816
477.00        249.4622
478.00         266.063
479.00        264.4417
480.00        267.1101
481.00        285.4815
482.00        273.6485
483.00        259.7482
484.00        268.4778
485.00        293.3373
486.00        313.7131
487.00        317.1481
488.00        307.2804
489.00        312.7205
490.00        331.0945
491.00        328.7821
492.00        349.7802
493.00         373.545
494.00        355.0422
495.00         372.118
496.00        391.3651
497.00        362.6275
498.00        373.3098
499.00        397.3935
500.00        398.6761
501.00        429.9868
502.00        446.2745
503.00        427.4035
504.00        439.6558
505.00        459.8718
506.00         475.477
507.00        508.3321
508.00        508.5082
509.00        496.3421
510.00        544.2753
511.00        548.8429
512.00        532.1399
513.00        564.0264
514.00        595.4175
515.00        614.8784
516.00        625.3807
517.00        639.2531
518.00        658.1804
519.00        680.1876
520.00        707.7719
521.00        733.4114
522.00        753.9211
523.00        768.7812
524.00        804.6971
525.00        853.8118
526.00        873.1553
527.00        913.0511
528.00        950.3752
529.00        938.5645
530.00        985.2147
531.00        1035.356
532.00        1025.113
533.00        1099.866
534.00        1169.179
535.00        1170.974
536.00        1231.367
537.00        1289.247
538.00         1322.64
539.00        1373.458
540.00        1421.082
541.00         1464.16
542.00         1509.67
543.00        1562.475
544.00        1616.269
545.00        1664.422
546.00        1715.957
547.00        1773.708
548.00        1831.652
549.00        1863.348
550.00        1899.313
551.00        1951.479
552.00        1986.532
553.00        2051.222
554.00         2134.13
555.00        2188.093
556.00         2243.58
557.00        2295.564
558.00        2338.103
559.00        2404.525
560.00        2486.916
561.00        2564.567
562.00         2611.78
563.00        2669.365
564.00        2740.986
565.00        2784.656
566.00        2801.704
567.00        2842.971
568.00        2962.167
569.00        3025.833
570.00        3066.882
571.00        3152.276
572.00        3178.257
573.00          3256.4
574.00        3398.264
575.00        3375.742
576.00        3410.048
577.00        3510.067
578.00        3517.901
579.00        3553.364
580.00        3630.368
581.00        3714.221
582.00        3726.986
583.00        3742.445
584.00        3818.834
585.00        3895.315
586.00        3931.906
587.00        3958.916
588.00        4062.406
589.00        4141.411
590.00          4168.3
591.00        4169.009
592.00        4250.541
593.00        4322.541
594.00        4323.786
595.00        4416.637
596.00        4484.006
597.00        4518.312
598.00        4619.632
599.00         4671.44
600.00        4665.051
601.00        4645.218
602.00        4649.136
603.00        4683.072
604.00        4745.154
605.00        4860.565
606.00        4947.896
607.00        4996.561
608.00        5057.455
609.00        5146.308
610.00        5225.658
611.00        5264.341
612.00        5327.175
613.00        5423.241
614.00        5535.902
615.00        5646.567
616.00        5702.067
617.00        5762.289
618.00        5916.155
619.00        5986.809
620.00        6030.395
621.00         6139.22
622.00        6275.262
623.00        6402.616
624.00        6497.607
625.00        6555.582
626.00        6709.871
627.00        6848.215
628.00        6851.169
629.00          7006.3
630.00        7171.925
631.00         7256.51
632.00        7381.728
633.00         7534.08
634.00        7667.787
635.00        7739.865
636.00        7828.373
637.00        7977.615
638.00        8184.762
639.00        8373.227
640.00        8551.176
641.00        8698.953
642.00        8789.882
643.00        8950.221
644.00         9148.25
645.00        9308.287
646.00        9410.953
647.00        9562.859
648.00        9781.511
649.00         9979.61
650.00        10133.46
651.00        10318.04
652.00        10580.12
653.00        10683.74
654.00        10856.88
655.00        11130.93
656.00        11236.76
657.00        11423.31
658.00        11641.82
659.00        11790.85
660.00        12115.16
661.00        12327.34
662.00         12390.8
663.00        12658.87
664.00        12897.25
665.00         13129.4
666.00        13418.73
667.00        13566.06
668.00        13753.54
669.00         14038.3
670.00        14259.17
671.00        14505.79
672.00        14767.84
673.00        15012.31
674.00        15270.03
675.00        15501.86
676.00        15747.69
677.00         16109.4
678.00        16384.61
679.00         16611.7
680.00        16896.54
681.00        17245.63
682.00        17522.25
683.00           17724
684.00        17988.83
685.00        18281.19
686.00        18605.57
687.00        18899.99
688.00        19159.98
689.00        19471.92
690.00        19842.87
691.00        20196.91
692.00        20372.85
693.00        20618.44
694.00        21043.27
695.00         21349.6
696.00        21612.84
697.00        21872.79
698.00        22140.69
699.00        22507.28
700.00        22784.68
701.00        23076.58
702.00        23447.39
703.00        23660.14
704.00        23895.56
705.00        24358.99
706.00        24558.77
707.00        24747.03
708.00        25015.26
709.00        25297.81
710.00        25457.67
711.00        25658.37
712.00        25989.53
713.00        26316.88
714.00        26534.09
715.00         26673.6
716.00        26822.63
717.00        27053.78
718.00        27129.57
719.00         27185.5
720.00        27535.94
721.00           27688
722.00        27700.85
723.00        27807.28
724.00        28203.96
725.00        28450.57
726.00        28553.33
727.00        28669.61
728.00        28722.59
729.00        29051.86
730.00         29426.4
731.00        29347.78
732.00         29504.9
733.00        29802.37
734.00        30073.95
735.00        30279.03
736.00        30358.36
737.00        30455.93
738.00        30641.32
739.00        30730.93
740.00           30916
741.00        31232.26
742.00        31356.05
743.00        31680.41
744.00        31704.76
745.00        31733.96
746.00        31778.77
747.00        31958.63
748.00        31914.68
749.00        32078.93
750.00        32252.75
751.00        32298.54
752.00        32363.38
753.00        32601.17
754.00         32684.7
755.00        32837.88
756.00         32964.8
757.00        32808.43
758.00        32910.95
759.00        33003.88
760.00        33012.18
761.00        32973.65
762.00        33094.41
763.00        33149.58
764.00        33141.21
765.00        33158.33
766.00        33217.05
767.00        33271.21
768.00        33277.26
769.00         33238.8
770.00        33320.91
771.00        33390.87
772.00        33361.96
773.00        33376.23
774.00        33358.27
775.00         33362.9
776.00         33390.6
777.00        33450.78
778.00        33355.06
779.00        33220.76
780.00        33203.79
781.00        33155.88
782.00        33284.66
783.00        33319.95
784.00        33171.59
785.00        33197.49
786.00        33331.36
787.00        33161.47
788.00        33352.01
789.00        33215.38
790.00         33107.5
791.00        33165.54
792.00        33233.71
793.00        33114.05
794.00        33038.58
795.00        32990.49
796.00        33137.32
797.00        32924.74
798.00        33046.26
799.00         33144.9
800.00        32918.44
801.00        32956.29
802.00        32953.43
803.00        32901.03
804.00        32658.29
805.00        32757.15
806.00        32825.52
807.00        32872.02
808.00        32667.29
809.00        33009.82
810.00        32656.03
811.00        32659.72
812.00        32773.63
813.00        32694.86
814.00        32740.01
815.00        32801.18
816.00        32724.23
817.00        32794.53
818.00         32782.8
819.00        32692.97
820.00        32599.69
821.00        32435.54
822.00        32548.85
823.00        32638.97
824.00        32614.31
825.00        32722.88
826.00        32606.82
827.00         32553.2
828.00        32691.95
829.00        32784.27
830.00        32713.78
831.00        32670.71
832.00        32782.42
833.00        32766.95
834.00        32934.88
835.00        32893.79
836.00        32816.26
837.00        32864.55
838.00        32918.04
839.00        33109.09
840.00        32940.45
841.00        32789.63
842.00        32990.09
843.00        33269.48
844.00         33244.3
845.00        33068.76
846.00        33322.46
847.00        33381.41
848.00        33403.52
849.00        33518.52
850.00        33616.15
851.00        33809.82
852.00        33841.54
853.00        33783.16
854.00        33860.57
855.00        33843.06
856.00        34025.79
857.00        34192.42
858.00        34162.81
859.00        34171.95
860.00        34287.27
861.00         34331.9
862.00        34415.48
863.00        34638.73
864.00        34468.52
865.00        34552.32
866.00        34687.89
867.00        34416.27
868.00        34625.09
869.00        34716.27
870.00        34714.59
871.00        34671.85
872.00         34486.5
873.00        34561.67
874.00         34522.9
875.00         34475.7
876.00        34652.03
877.00        34626.32
878.00        34675.29
879.00        34667.57
880.00        34782.21
881.00        35016.57
882.00        35044.55
883.00        35108.31
884.00        35261.17
885.00         35282.9
886.00        35539.05
887.00        35485.79
888.00        35473.79
889.00        35921.79
890.00        35765.81
891.00         35828.9
892.00        35852.66
893.00         35871.5
894.00        36191.91
895.00        36115.29
896.00        35953.05
897.00        35985.92
898.00        36106.38
899.00         35998.8
900.00        35988.93
901.00        36027.54
902.00         36072.6
903.00        35912.04
904.00        36058.33
905.00        36157.17
906.00        35930.43
907.00        35753.26
908.00        35868.93
909.00        35759.85
910.00        35774.04
911.00         35616.8
912.00        35422.06
913.00           35550
914.00        35390.27
915.00        35042.53
916.00        34887.13
917.00        34899.38
918.00        34695.47
919.00        34566.68
920.00        34339.77
921.00        34067.74
922.00         33785.1
923.00        33519.58
924.00        33182.85
925.00        32981.94
926.00        32580.19
927.00        32128.33
928.00        31904.09
929.00        31454.91
930.00        31047.47
931.00        30450.94
932.00         29650.1
933.00        28899.75
934.00        27786.32
935.00        26372.88
936.00        24766.83
937.00        23173.57
938.00           21813
939.00        20540.35
940.00         19495.8
941.00        18753.88
942.00        18299.62
943.00        18067.41
944.00        18028.16
945.00        18212.35
946.00        18518.53
947.00        18858.24
948.00        19251.45
949.00        19718.24
950.00        20328.36
951.00        20789.77
952.00        21207.93
953.00        21847.82
954.00        22359.49
955.00        22825.05
956.00        23206.14
957.00        23527.27
958.00         23916.7
959.00        24199.54
960.00        24414.96
961.00        24684.53
962.00        24991.15
963.00         25162.2
964.00        25119.24
965.00        25061.66
966.00        25101.97
967.00        25234.19
968.00        25329.85
969.00        25152.57
970.00        25239.35
971.00        25303.74
972.00         25226.4
973.00        25259.34
974.00        25398.08
975.00        25273.99
976.00        25386.39
977.00        25267.02
978.00        25184.84
979.00        25080.08
980.00        24827.18
981.00        24747.98
982.00        24492.58
983.00        24365.47
984.00        24185.13
985.00        23935.84
986.00        23757.04
987.00        23484.63
988.00        23318.28
989.00        22910.17
990.00        22353.27
991.00        21797.03
992.00        21221.33
993.00        20650.65
994.00        20097.38
995.00        19385.84
996.00        18768.26
997.00        18240.96
998.00         17463.9
999.00        16906.27
1000.00        16303.27
1001.00        15686.87
1002.00        15056.46
1003.00        14426.74
1004.00        13820.01
1005.00        13224.81
1006.00        12553.21
1007.00        11939.58
1008.00        11382.35
1009.00        10777.92
1010.00        10184.55
1011.00        9709.107
1012.00        9158.799
1013.00        8588.882
1014.00        8081.226
1015.00         7609.98
1016.00        7104.465
1017.00        6592.731
1018.00        6142.324
1019.00        5744.383
1020.00        5235.495
